Freq,Impedance
1,10.57
2,618.97
3,1211.63
4,2614.86
5,4391.4
6,3591.89
7,3036.61
8,3649.25
9,4215.6
10,3713.55
11,3271.01
12,3516.66
13,3364.55
14,3193.75
15,3048.86
16,3006.38
17,2811.65
18,2714.81
19,2555.04
20,2422.34
21,2350.33
22,2343.04
23,2247.09
24,2122.13
25,2066.63
26,2033.86
27,2021.64
28,1830.03
29,1824.13
30,1758.51
31,1693.59
32,1675.18
33,1624.2
34,1632.34
35,1587.19
36,1486.35
37,1446.28
38,1452.61
39,1395.29
40,1353.19
41,1325.18
42,1330.42
43,1255.01
44,1199.82
45,1211.17
46,1169.76
47,1151.48
48,1097.34
49,1092.43
50,1056.63
51,1020.92
52,990.34
53,980.03
54,932.9
55,917.88
56,876.38
57,863.72
58,847.8
59,815.78
60,803.57
61,777.37
62,769.83
63,761.52
64,739.33
65,735.84
66,718.15
67,702.81
68,693.45
69,675.32
70,665.68
71,659.57
72,647.08
73,638.99
74,623.37
75,616.08
76,604.81
77,593.49
78,586.88
79,572.33
80,562.16
81,557.26
82,542.67
83,534.57
84,525.51
85,513.39
86,500.03
87,495.76
88,488.62
89,481.47
90,470.32
91,469.53
92,458.11
93,452.23
94,442.47
95,438.84
96,432.59
97,425.86
98,417.66
99,416.99
100,411.07
