Freq,Impedance
1,10.56
2,608.34
3,1164.03
4,2469.01
5,4092.07
6,3323.57
7,2796.02
8,3631.37
9,3665.8
10,3300.74
11,2878.81
12,3141.02
13,2915.65
14,2639.7
15,2483.19
16,2353.47
17,2225.29
18,2136.12
19,2048.11
20,1919.09
21,1875.1
22,1815.11
23,1734.89
24,1633.68
25,1633.68
26,1562.03
27,1508.58
28,1452.61
29,1438.54
30,1401.15
31,1349.69
32,1317.6
33,1298.8
34,1290.2
35,1233.23
36,1169.4
37,1180.51
38,1128.0
39,1134.09
40,1093.08
41,1080.12
42,1083.78
43,1054.94
44,998.58
45,983.09
46,943.7
47,931.17
48,894.53
49,877.19
50,862.81
51,842.2
52,815.08
53,786.74
54,769.15
55,753.88
56,736.97
57,720.74
58,709.13
59,689.67
60,677.81
61,662.3
62,655.72
63,639.59
64,631.38
65,658.7
66,682.07
67,657.1
68,632.19
69,642.03
70,615.08
71,614.87
72,607.41
73,596.9
74,590.84
75,570.35
76,561.94
77,554.07
78,534.48
79,520.48
80,519.76
81,513.13
82,495.89
83,490.94
84,485.78
85,479.07
86,474.55
87,468.33
88,470.44
89,476.75
90,453.89
91,455.78
92,443.47
93,443.3
94,435.36
95,438.05
96,423.23
97,425.59
98,421.17
99,420.35
100,406.9
