Freq,Impedance
1,10.57
2,626.72
3,1259.08
4,2974.07
5,5277.62
6,4826.46
7,4027.39
8,5493.95
9,7314.2
10,5679.28
11,4760.79
12,5377.51
13,5570.33
14,4677.81
15,4235.05
16,4510.72
17,4188.1
18,3685.0
19,3758.08
20,3577.05
21,3351.73
22,3313.56
23,3215.5
24,3109.54
25,2945.25
26,2899.8
27,2916.04
28,2573.51
29,2521.57
30,2535.9
31,2460.56
32,2365.54
33,2412.78
34,2353.47
35,2190.6
36,2070.2
37,2160.24
38,1980.21
39,1980.21
40,1834.79
41,1834.79
42,1874.25
43,1719.21
44,1646.62
45,1607.75
46,1537.27
47,1509.3
48,1430.6
49,1415.73
50,1366.81
51,1309.85
52,1256.26
53,1232.27
54,1239.72
55,1188.68
56,1123.89
57,1079.13
58,1059.64
59,1002.6
60,976.29
61,943.87
62,928.6
63,913.72
64,888.94
65,861.85
66,852.53
67,839.51
68,822.0
69,807.81
70,794.71
71,779.84
72,772.85
73,757.41
74,741.53
75,734.95
76,711.2
77,703.3
78,689.38
79,682.57
80,668.68
81,655.81
82,644.73
83,637.95
84,624.17
85,616.64
86,605.26
87,591.41
88,579.54
89,568.16
90,558.19
91,555.92
92,542.67
93,535.72
94,525.54
95,523.18
96,509.19
97,502.72
98,493.15
99,488.26
100,479.34
